! AIRS solar data file for AIRS SRF 31 Mar 2008 m150
!     Tef = 156.339 K, yoffset = -15.0 um
! Data for 649-1614 cm-1 comes from M.P. Thekaekara, 1973 Solar
! Energy v.14 p.109-127 (supplied to us by Chris Barnet).  The ~80
! cm-1 point spacing data has been interpolated to the AIRS
! channel freqs and converted to W/(m2.sr.cm-1).
!
! Data for 2181-2665 cm-1 comes from ATMOS Solar Spectra, and was
! supplied to us by ATMOS Principal Investigator Michael Gunson.
! In particular we used the file "atmos_corrected_solar.mat".
! This data was then directly convolved with the estimated AIRS
! SRFs for each channel to approximate the effective AIRS solar.
!
!chan   frequency    solar
!---- ----------- --------
    1   649.6268   15.5014
    2   649.8652   15.5114
    3   650.1038   15.5215
    4   650.3426   15.5313
    5   650.5816   15.5409
    6   650.8208   15.5508
    7   651.0602   15.5610
    8   651.2998   15.5712
    9   651.5395   15.5810
   10   651.7795   15.5907
   11   652.0196   15.6008
   12   652.2599   15.6112
   13   652.5004   15.6214
   14   652.7411   15.6312
   15   652.9820   15.6411
   16   653.2231   15.6515
   17   653.4644   15.6620
   18   653.7059   15.6722
   19   653.9475   15.6821
   20   654.1893   15.6922
   21   654.4314   15.7028
   22   654.6736   15.7133
   23   654.9160   15.7236
   24   655.1586   15.7336
   25   655.4014   15.7440
   26   655.6444   15.7547
   27   655.8876   15.7653
   28   656.1310   15.7756
   29   656.3745   15.7859
   30   656.6183   15.7965
   31   656.8623   15.8073
   32   657.1064   15.8179
   33   657.3507   15.8283
   34   657.5953   15.8389
   35   657.8400   15.8497
   36   658.0849   15.8606
   37   658.3300   15.8712
   38   658.5753   15.8818
   39   658.8208   15.8926
   40   659.0665   15.9036
   41   659.3124   15.9145
   42   659.5585   15.9252
   43   659.8048   15.9360
   44   660.0513   15.9471
   45   660.2979   15.9581
   46   660.5448   15.9691
   47   660.7919   15.9800
   48   661.0391   15.9911
   49   661.2866   16.0023
   50   661.5342   16.0134
   51   661.7821   16.0245
   52   662.0301   16.0356
   53   662.2784   16.0469
   54   662.5268   16.0582
   55   662.7755   16.0694
   56   663.0243   16.0806
   57   663.2733   16.0920
   58   663.5226   16.1034
   59   663.7720   16.1149
   60   664.0216   16.1262
   61   664.2714   16.1377
   62   664.5215   16.1492
   63   664.7717   16.1608
   64   665.0221   16.1723
   65   665.2727   16.1839
   66   665.5236   16.1955
   67   665.7746   16.2072
   68   666.0258   16.2190
   69   666.2772   16.2306
   70   666.5289   16.2423
   71   666.7807   16.2542
   72   667.0327   16.2661
   73   667.2849   16.2780
   74   667.5374   16.2898
   75   667.7900   16.3018
   76   668.0428   16.3138
   77   668.2958   16.3258
   78   668.5491   16.3378
   79   668.8025   16.3499
   80   669.0562   16.3620
   81   669.3100   16.3742
   82   669.5641   16.3863
   83   669.8183   16.3985
   84   670.0728   16.4108
   85   670.3274   16.4230
   86   670.5823   16.4354
   87   670.8373   16.4477
   88   671.0926   16.4601
   89   671.3481   16.4724
   90   671.6037   16.4849
   91   671.8596   16.4974
   92   672.1157   16.5099
   93   672.3720   16.5224
   94   672.6285   16.5350
   95   672.8852   16.5477
   96   673.1421   16.5603
   97   673.3992   16.5729
   98   673.6566   16.5856
   99   673.9141   16.5984
  100   674.1718   16.6112
  101   674.4298   16.6240
  102   674.6879   16.6367
  103   674.9463   16.6496
  104   675.2048   16.6626
  105   675.4636   16.6754
  106   675.7226   16.6883
  107   675.9818   16.7013
  108   676.2412   16.7144
  109   676.5008   16.7275
  110   676.7606   16.7405
  111   677.0206   16.7536
  112   677.2808   16.7667
  113   677.5413   16.7799
  114   677.8019   16.7931
  115   678.0628   16.8063
  116   678.3239   16.8195
  117   678.5851   16.8328
  118   678.8466   16.8462
  119   679.1083   16.8594
  120   679.3703   16.8728
  121   679.6324   16.8862
  122   679.8947   16.8996
  123   680.1573   16.9131
  124   680.4200   16.9266
  125   680.6830   16.9401
  126   680.9462   16.9536
  127   681.2096   16.9672
  128   681.4732   16.9808
  129   681.7370   16.9944
  130   682.0010   17.0081
  131   687.6094   17.3016
  132   687.8787   17.3158
  133   688.1482   17.3301
  134   688.4179   17.3444
  135   688.6878   17.3587
  136   688.9580   17.3730
  137   689.2284   17.3873
  138   689.4990   17.4018
  139   689.7698   17.4162
  140   690.0409   17.4306
  141   690.3121   17.4450
  142   690.5836   17.4595
  143   690.8553   17.4740
  144   691.1273   17.4885
  145   691.3994   17.5030
  146   691.6718   17.5176
  147   691.9444   17.5323
  148   692.2172   17.5469
  149   692.4902   17.5614
  150   692.7635   17.5761
  151   693.0370   17.5909
  152   693.3107   17.6055
  153   693.5846   17.6201
  154   693.8587   17.6349
  155   694.1331   17.6497
  156   694.4077   17.6645
  157   694.6825   17.6792
  158   694.9576   17.6940
  159   695.2328   17.7089
  160   695.5083   17.7238
  161   695.7840   17.7386
  162   696.0600   17.7535
  163   696.3361   17.7684
  164   696.6125   17.7834
  165   696.8892   17.7983
  166   697.1660   17.8132
  167   697.4431   17.8282
  168   697.7204   17.8432
  169   697.9979   17.8582
  170   698.2756   17.8733
  171   698.5536   17.8883
  172   698.8318   17.9034
  173   699.1103   17.9185
  174   699.3889   17.9336
  175   699.6678   17.9487
  176   699.9469   17.9638
  177   700.2263   17.9790
  178   700.5059   17.9941
  179   700.7856   18.0093
  180   701.0657   18.0245
  181   701.3459   18.0397
  182   701.6264   18.0549
  183   701.9072   18.0702
  184   702.1881   18.0854
  185   702.4693   18.1007
  186   702.7507   18.1160
  187   703.0324   18.1313
  188   703.3142   18.1466
  189   703.5964   18.1619
  190   703.8787   18.1772
  191   704.1613   18.1926
  192   704.4441   18.2080
  193   704.7271   18.2233
  194   705.0104   18.2387
  195   705.2939   18.2541
  196   705.5776   18.2695
  197   705.8616   18.2849
  198   706.1458   18.3003
  199   706.4302   18.3158
  200   706.7149   18.3312
  201   706.9998   18.3467
  202   707.2849   18.3621
  203   707.5703   18.3776
  204   707.8559   18.3932
  205   708.1418   18.4086
  206   708.4278   18.4241
  207   708.7142   18.4396
  208   709.0007   18.4552
  209   709.2875   18.4707
  210   709.5745   18.4862
  211   709.8618   18.5018
  212   710.1493   18.5174
  213   710.4370   18.5330
  214   710.7250   18.5485
  215   711.0132   18.5640
  216   711.3017   18.5797
  217   711.5904   18.5954
  218   711.8793   18.6109
  219   712.1685   18.6264
  220   712.4579   18.6421
  221   712.7475   18.6578
  222   713.0374   18.6733
  223   713.3275   18.6889
  224   713.6179   18.7047
  225   713.9085   18.7203
  226   714.1993   18.7358
  227   714.4904   18.7515
  228   714.7818   18.7673
  229   715.0733   18.7829
  230   715.3652   18.7985
  231   715.6572   18.8142
  232   715.9495   18.8299
  233   716.2420   18.8455
  234   716.5348   18.8611
  235   716.8279   18.8769
  236   717.1211   18.8926
  237   717.4147   18.9083
  238   717.7084   18.9239
  239   718.0024   18.9396
  240   718.2967   18.9554
  241   718.5911   18.9711
  242   718.8859   18.9867
  243   719.1809   19.0024
  244   719.4761   19.0183
  245   719.7716   19.0340
  246   720.0673   19.0496
  247   720.3632   19.0654
  248   720.6594   19.0813
  249   720.9559   19.0970
  250   721.2526   19.1126
  251   721.5496   19.1284
  252   721.8468   19.1444
  253   722.1442   19.1601
  254   722.4419   19.1756
  255   722.7399   19.1916
  256   723.0380   19.2077
  257   723.3365   19.2232
  258   723.6352   19.2389
  259   723.9341   19.2549
  260   724.2333   19.2711
  261   724.5327   19.2865
  262   724.8324   19.3021
  263   725.1324   19.3185
  264   725.4326   19.3345
  265   725.7330   19.3498
  266   726.0337   19.3657
  267   726.3346   19.3821
  268   726.6358   19.3979
  269   726.9373   19.4134
  270   727.2390   19.4295
  271   727.5409   19.4460
  272   727.8431   19.4616
  273   728.1456   19.4771
  274   728.4483   19.4935
  275   728.0641   19.4732
  276   728.3665   19.4892
  277   728.6691   19.5052
  278   728.9720   19.5211
  279   729.2751   19.5370
  280   729.5785   19.5531
  281   729.8821   19.5692
  282   730.1860   19.5851
  283   730.4901   19.6010
  284   730.7945   19.6172
  285   731.0992   19.6333
  286   731.4040   19.6493
  287   731.7092   19.6653
  288   732.0146   19.6814
  289   732.3202   19.6975
  290   732.6261   19.7137
  291   732.9323   19.7296
  292   733.2387   19.7458
  293   733.5453   19.7620
  294   733.8523   19.7781
  295   734.1594   19.7941
  296   734.4669   19.8104
  297   734.7745   19.8267
  298   735.0825   19.8429
  299   735.3907   19.8589
  300   735.6991   19.8751
  301   736.0078   19.8916
  302   736.3168   19.9077
  303   736.6260   19.9238
  304   736.9355   19.9402
  305   737.2452   19.9567
  306   737.5552   19.9728
  307   737.8655   19.9890
  308   738.1760   20.0055
  309   738.4868   20.0220
  310   738.7978   20.0382
  311   739.1091   20.0545
  312   739.4206   20.0710
  313   739.7324   20.0875
  314   740.0445   20.1038
  315   740.3568   20.1201
  316   740.6694   20.1367
  317   740.9822   20.1533
  318   741.2953   20.1697
  319   741.6087   20.1860
  320   741.9223   20.2027
  321   742.2362   20.2194
  322   742.5504   20.2358
  323   742.8648   20.2522
  324   743.1795   20.2689
  325   743.4944   20.2857
  326   743.8096   20.3021
  327   744.1251   20.3187
  328   744.4408   20.3355
  329   744.7568   20.3522
  330   745.0731   20.3688
  331   745.3896   20.3855
  332   745.7064   20.4024
  333   746.0235   20.4191
  334   746.3408   20.4357
  335   746.6584   20.4526
  336   746.9762   20.4695
  337   747.2944   20.4862
  338   747.6128   20.5030
  339   747.9314   20.5200
  340   748.2503   20.5370
  341   748.5695   20.5537
  342   748.8890   20.5706
  343   749.2087   20.5878
  344   749.5287   20.6047
  345   749.8490   20.6216
  346   750.1695   20.6386
  347   750.4903   20.6558
  348   750.8114   20.6728
  349   751.1327   20.6897
  350   751.4543   20.7070
  351   751.7762   20.7242
  352   752.0984   20.7412
  353   752.4208   20.7583
  354   752.7435   20.7757
  355   753.0665   20.7929
  356   753.3897   20.8100
  357   753.7132   20.8272
  358   754.0370   20.8447
  359   754.3610   20.8620
  360   754.6854   20.8792
  361   755.0100   20.8967
  362   755.3349   20.9141
  363   755.6600   20.9314
  364   755.9855   20.9488
  365   756.3111   20.9663
  366   756.6371   20.9840
  367   756.9634   21.0013
  368   757.2899   21.0188
  369   757.6167   21.0365
  370   757.9438   21.0541
  371   758.2712   21.0716
  372   758.5988   21.0893
  373   758.9267   21.1071
  374   759.2549   21.1246
  375   759.5834   21.1424
  376   759.9121   21.1603
  377   760.2411   21.1780
  378   760.5704   21.1958
  379   760.9000   21.2136
  380   761.2299   21.2315
  381   761.5600   21.2494
  382   761.8904   21.2673
  383   762.2211   21.2853
  384   762.5521   21.3033
  385   762.8834   21.3212
  386   763.2149   21.3394
  387   763.5467   21.3573
  388   763.8788   21.3755
  389   764.2112   21.3937
  390   764.5439   21.4118
  391   764.8768   21.4300
  392   765.2101   21.4483
  393   765.5436   21.4665
  394   765.8774   21.4848
  395   766.2115   21.5032
  396   766.5459   21.5216
  397   766.8805   21.5398
  398   767.2155   21.5584
  399   767.5507   21.5769
  400   767.8862   21.5953
  401   768.2220   21.6138
  402   768.5581   21.6325
  403   768.8944   21.6510
  404   769.2311   21.6695
  405   769.5680   21.6884
  406   769.9053   21.7071
  407   770.2428   21.7256
  408   770.5806   21.7444
  409   770.9187   21.7636
  410   771.2571   21.7822
  411   771.5957   21.8008
  412   771.9347   21.8200
  413   772.2740   21.8391
  414   772.6135   21.8576
  415   772.9533   21.8767
  416   773.2935   21.8962
  417   773.6339   21.9152
  418   773.9746   21.9338
  419   774.3156   21.9532
  420   774.6569   21.9728
  421   774.9985   21.9917
  422   775.3403   22.0107
  423   775.6825   22.0305
  424   776.0249   22.0498
  425   776.3677   22.0686
  426   776.7107   22.0882
  427   777.0541   22.1081
  428   777.3977   22.1270
  429   777.7417   22.1465
  430   778.0859   22.1664
  431   778.4304   22.1860
  432   778.7752   22.2052
  433   779.1203   22.2249
  434   779.4657   22.2450
  435   779.8115   22.2643
  436   780.1575   22.2839
  437   780.5038   22.3042
  438   780.8504   22.3240
  439   781.1973   22.3433
  440   781.5445   22.3634
  441   781.8919   22.3836
  442   789.2733   22.8101
  443   789.6271   22.8307
  444   789.9811   22.8513
  445   790.3355   22.8721
  446   790.6902   22.8928
  447   791.0452   22.9135
  448   791.4005   22.9344
  449   791.7561   22.9551
  450   792.1120   22.9759
  451   792.4682   22.9969
  452   792.8247   23.0179
  453   793.1815   23.0387
  454   793.5386   23.0598
  455   793.8961   23.0809
  456   794.2538   23.1018
  457   794.6119   23.1229
  458   794.9702   23.1442
  459   795.3289   23.1652
  460   795.6879   23.1865
  461   796.0472   23.2076
  462   796.4068   23.2288
  463   796.7667   23.2502
  464   797.1269   23.2714
  465   797.4875   23.2929
  466   797.8483   23.3143
  467   798.2095   23.3355
  468   798.5709   23.3570
  469   798.9327   23.3787
  470   799.2948   23.4000
  471   799.6572   23.4215
  472   800.0200   23.4433
  473   800.3830   23.4648
  474   800.7464   23.4863
  475   801.1100   23.5082
  476   801.4740   23.5299
  477   801.8383   23.5514
  478   802.2030   23.5733
  479   802.5679   23.5953
  480   802.9331   23.6168
  481   803.2987   23.6386
  482   803.6646   23.6610
  483   804.0308   23.6827
  484   804.3973   23.7043
  485   804.7642   23.7266
  486   805.1313   23.7488
  487   805.4988   23.7704
  488   805.8666   23.7925
  489   806.2347   23.8152
  490   806.6032   23.8369
  491   806.9719   23.8588
  492   807.3410   23.8816
  493   807.7104   23.9039
  494   808.0802   23.9255
  495   808.4502   23.9481
  496   808.8206   23.9708
  497   809.1913   23.9926
  498   809.5623   24.0151
  499   809.9336   24.0380
  500   810.3053   24.0600
  501   810.6773   24.0823
  502   811.0496   24.1053
  503   811.4223   24.1279
  504   811.7952   24.1499
  505   812.1685   24.1728
  506   812.5421   24.1958
  507   812.9161   24.2179
  508   813.2904   24.2406
  509   813.6650   24.2639
  510   814.0399   24.2861
  511   814.4151   24.3088
  512   814.7907   24.3321
  513   815.1667   24.3548
  514   815.5429   24.3773
  515   815.9195   24.4005
  516   816.2964   24.4237
  517   816.6736   24.4462
  518   817.0512   24.4692
  519   817.4291   24.4929
  520   817.8073   24.5154
  521   818.1859   24.5382
  522   818.5648   24.5620
  523   818.9440   24.5848
  524   819.3236   24.6077
  525   819.7035   24.6314
  526   820.0837   24.6546
  527   820.4643   24.6774
  528   820.8452   24.7010
  529   821.2264   24.7246
  530   821.6079   24.7473
  531   821.9899   24.7710
  532   822.3721   24.7947
  533   822.7547   24.8176
  534   823.1376   24.8411
  535   823.5208   24.8650
  536   823.9044   24.8882
  537   824.2884   24.9114
  538   824.6726   24.9357
  539   825.0572   24.9592
  540   825.4422   24.9823
  541   825.8275   25.0063
  542   826.2131   25.0300
  543   826.5991   25.0532
  544   826.9854   25.0775
  545   827.3720   25.1012
  546   827.7590   25.1246
  547   828.1463   25.1487
  548   828.5340   25.1727
  549   828.9220   25.1963
  550   829.3104   25.2203
  551   829.6991   25.2443
  552   830.0882   25.2681
  553   830.4776   25.2921
  554   830.8673   25.3163
  555   831.2574   25.3402
  556   831.6478   25.3641
  557   832.0386   25.3885
  558   832.4297   25.4124
  559   832.8212   25.4365
  560   833.2130   25.4608
  561   833.6052   25.4849
  562   833.9977   25.5091
  563   834.3906   25.5334
  564   834.7838   25.5577
  565   835.1774   25.5819
  566   835.5713   25.6062
  567   835.9655   25.6307
  568   836.3601   25.6550
  569   836.7551   25.6793
  570   837.1504   25.7039
  571   837.5461   25.7283
  572   837.9421   25.7527
  573   838.3385   25.7774
  574   838.7352   25.8018
  575   839.1323   25.8262
  576   839.5297   25.8511
  577   839.9275   25.8756
  578   840.3257   25.9000
  579   840.7242   25.9251
  580   841.1230   25.9497
  581   841.5222   25.9741
  582   841.9218   25.9993
  583   842.3217   26.0240
  584   842.7220   26.0485
  585   843.1227   26.0737
  586   843.5237   26.0985
  587   843.9250   26.1231
  588   844.3267   26.1484
  589   844.7288   26.1733
  590   845.1312   26.1981
  591   845.5340   26.2234
  592   845.9372   26.2484
  593   846.3407   26.2732
  594   846.7446   26.2985
  595   847.1488   26.3238
  596   847.5535   26.3487
  597   847.9584   26.3742
  598   848.3638   26.3993
  599   848.7694   26.4244
  600   849.1755   26.4499
  601   849.5819   26.4752
  602   849.9887   26.5004
  603   850.3959   26.5261
  604   850.8034   26.5514
  605   851.2113   26.5766
  606   851.6195   26.6025
  607   852.0282   26.6279
  608   852.4371   26.6532
  609   851.4992   26.5942
  610   851.8059   26.6138
  611   852.1128   26.6334
  612   852.4200   26.6518
  613   852.7274   26.6710
  614   853.0350   26.6910
  615   853.3429   26.7101
  616   853.6510   26.7287
  617   853.9594   26.7482
  618   854.2680   26.7681
  619   854.5768   26.7871
  620   854.8859   26.8059
  621   855.1952   26.8257
  622   855.5048   26.8455
  623   855.8146   26.8646
  624   856.1246   26.8835
  625   856.4349   26.9035
  626   856.7455   26.9233
  627   857.0563   26.9423
  628   857.3673   26.9617
  629   857.6786   26.9815
  630   857.9901   27.0012
  631   858.3019   27.0204
  632   858.6139   27.0400
  633   858.9261   27.0601
  634   859.2386   27.0795
  635   859.5514   27.0987
  636   859.8644   27.1187
  637   860.1776   27.1387
  638   860.4911   27.1582
  639   860.8048   27.1778
  640   861.1188   27.1979
  641   861.4330   27.2178
  642   861.7475   27.2372
  643   862.0622   27.2571
  644   862.3772   27.2773
  645   862.6924   27.2970
  646   863.0079   27.3167
  647   863.3236   27.3367
  648   863.6395   27.3570
  649   863.9558   27.3767
  650   864.2722   27.3965
  651   864.5889   27.4168
  652   864.9059   27.4370
  653   865.2231   27.4567
  654   865.5406   27.4768
  655   865.8583   27.4972
  656   866.1763   27.5173
  657   866.4945   27.5371
  658   866.8129   27.5575
  659   867.1317   27.5779
  660   867.4506   27.5979
  661   867.7699   27.6180
  662   868.0893   27.6387
  663   868.4091   27.6590
  664   868.7290   27.6790
  665   869.0493   27.6994
  666   869.3698   27.7200
  667   869.6905   27.7403
  668   870.0115   27.7604
  669   870.3328   27.7812
  670   870.6543   27.8018
  671   870.9760   27.8219
  672   871.2981   27.8424
  673   871.6203   27.8632
  674   871.9429   27.8838
  675   872.2656   27.9040
  676   872.5887   27.9248
  677   872.9120   27.9457
  678   873.2355   27.9662
  679   873.5593   27.9866
  680   873.8834   28.0076
  681   874.2077   28.0280
  682   874.5323   28.0492
  683   874.8572   28.0697
  684   875.1823   28.0909
  685   875.5076   28.1116
  686   875.8332   28.1321
  687   876.1591   28.1532
  688   876.4852   28.1743
  689   876.8116   28.1951
  690   877.1383   28.2159
  691   877.4652   28.2370
  692   877.7924   28.2582
  693   878.1198   28.2790
  694   878.4475   28.3000
  695   878.7755   28.3213
  696   879.1037   28.3426
  697   879.4322   28.3634
  698   879.7609   28.3845
  699   880.0899   28.4060
  700   880.4192   28.4272
  701   880.7487   28.4481
  702   881.0785   28.4696
  703   881.4085   28.4912
  704   881.7389   28.5122
  705   882.0695   28.5333
  706   882.4003   28.5551
  707   882.7314   28.5767
  708   883.0628   28.5977
  709   883.3944   28.6192
  710   883.7263   28.6411
  711   884.0585   28.6623
  712   884.3909   28.6835
  713   884.7236   28.7056
  714   885.0566   28.7275
