! AIRS solar data file for AIRS SRF 31 Mar 2008 m140
!     Tef = 156.339 K, yoffset = -14.0 um
! Data for 649-1614 cm-1 comes from M.P. Thekaekara, 1973 Solar
! Energy v.14 p.109-127 (supplied to us by Chris Barnet).  The ~80
! cm-1 point spacing data has been interpolated to the AIRS
! channel freqs and converted to W/(m2.sr.cm-1).
!
! Data for 2181-2665 cm-1 comes from ATMOS Solar Spectra, and was
! supplied to us by ATMOS Principal Investigator Michael Gunson.
! In particular we used the file "atmos_corrected_solar.mat".
! This data was then directly convolved with the estimated AIRS
! SRFs for each channel to approximate the effective AIRS solar.
!
!chan   frequency    solar
!---- ----------- --------
    1   649.6220   15.5012
    2   649.8604   15.5112
    3   650.0990   15.5213
    4   650.3379   15.5312
    5   650.5769   15.5408
    6   650.8160   15.5506
    7   651.0554   15.5608
    8   651.2950   15.5710
    9   651.5347   15.5808
   10   651.7747   15.5905
   11   652.0148   15.6006
   12   652.2551   15.6110
   13   652.4956   15.6212
   14   652.7363   15.6310
   15   652.9772   15.6409
   16   653.2183   15.6512
   17   653.4596   15.6617
   18   653.7010   15.6720
   19   653.9427   15.6819
   20   654.1845   15.6920
   21   654.4265   15.7026
   22   654.6688   15.7131
   23   654.9112   15.7234
   24   655.1538   15.7334
   25   655.3966   15.7438
   26   655.6396   15.7545
   27   655.8827   15.7651
   28   656.1261   15.7754
   29   656.3697   15.7857
   30   656.6134   15.7963
   31   656.8574   15.8071
   32   657.1015   15.8177
   33   657.3459   15.8281
   34   657.5904   15.8387
   35   657.8351   15.8495
   36   658.0800   15.8604
   37   658.3251   15.8710
   38   658.5704   15.8816
   39   658.8159   15.8924
   40   659.0616   15.9034
   41   659.3075   15.9142
   42   659.5536   15.9250
   43   659.7999   15.9358
   44   660.0463   15.9469
   45   660.2930   15.9579
   46   660.5399   15.9689
   47   660.7869   15.9798
   48   661.0342   15.9908
   49   661.2816   16.0020
   50   661.5293   16.0132
   51   661.7771   16.0242
   52   662.0252   16.0354
   53   662.2734   16.0467
   54   662.5218   16.0580
   55   662.7705   16.0692
   56   663.0193   16.0804
   57   663.2683   16.0917
   58   663.5176   16.1032
   59   663.7670   16.1146
   60   664.0166   16.1260
   61   664.2664   16.1374
   62   664.5165   16.1490
   63   664.7667   16.1606
   64   665.0171   16.1721
   65   665.2677   16.1836
   66   665.5185   16.1953
   67   665.7696   16.2070
   68   666.0208   16.2187
   69   666.2722   16.2304
   70   666.5238   16.2421
   71   666.7756   16.2540
   72   667.0277   16.2659
   73   667.2799   16.2777
   74   667.5323   16.2896
   75   667.7849   16.3015
   76   668.0378   16.3135
   77   668.2908   16.3255
   78   668.5440   16.3376
   79   668.7975   16.3496
   80   669.0511   16.3617
   81   669.3049   16.3739
   82   669.5590   16.3861
   83   669.8132   16.3983
   84   670.0677   16.4105
   85   670.3223   16.4228
   86   670.5772   16.4352
   87   670.8322   16.4475
   88   671.0875   16.4598
   89   671.3430   16.4722
   90   671.5986   16.4847
   91   671.8545   16.4972
   92   672.1106   16.5097
   93   672.3669   16.5222
   94   672.6234   16.5348
   95   672.8801   16.5474
   96   673.1370   16.5601
   97   673.3941   16.5727
   98   673.6514   16.5854
   99   673.9089   16.5981
  100   674.1667   16.6109
  101   674.4246   16.6237
  102   674.6828   16.6364
  103   674.9411   16.6493
  104   675.1997   16.6623
  105   675.4584   16.6752
  106   675.7174   16.6881
  107   675.9766   16.7011
  108   676.2360   16.7141
  109   676.4956   16.7272
  110   676.7554   16.7403
  111   677.0154   16.7533
  112   677.2756   16.7664
  113   677.5361   16.7796
  114   677.7967   16.7928
  115   678.0576   16.8060
  116   678.3186   16.8192
  117   678.5799   16.8325
  118   678.8414   16.8459
  119   679.1031   16.8592
  120   679.3650   16.8725
  121   679.6271   16.8859
  122   679.8895   16.8994
  123   680.1520   16.9128
  124   680.4148   16.9263
  125   680.6777   16.9398
  126   680.9409   16.9534
  127   681.2043   16.9669
  128   681.4679   16.9805
  129   681.7317   16.9941
  130   681.9958   17.0078
  131   687.6040   17.3013
  132   687.8733   17.3155
  133   688.1428   17.3298
  134   688.4125   17.3441
  135   688.6824   17.3584
  136   688.9526   17.3727
  137   689.2230   17.3870
  138   689.4936   17.4015
  139   689.7644   17.4160
  140   690.0354   17.4303
  141   690.3067   17.4447
  142   690.5782   17.4592
  143   690.8499   17.4737
  144   691.1218   17.4882
  145   691.3940   17.5027
  146   691.6663   17.5174
  147   691.9389   17.5321
  148   692.2117   17.5466
  149   692.4847   17.5611
  150   692.7580   17.5758
  151   693.0315   17.5906
  152   693.3052   17.6052
  153   693.5791   17.6198
  154   693.8532   17.6346
  155   694.1276   17.6494
  156   694.4022   17.6642
  157   694.6770   17.6789
  158   694.9521   17.6937
  159   695.2273   17.7086
  160   695.5028   17.7235
  161   695.7785   17.7383
  162   696.0545   17.7532
  163   696.3306   17.7681
  164   696.6070   17.7831
  165   696.8836   17.7980
  166   697.1605   17.8129
  167   697.4375   17.8279
  168   697.7148   17.8429
  169   697.9923   17.8579
  170   698.2701   17.8730
  171   698.5481   17.8880
  172   698.8263   17.9031
  173   699.1047   17.9182
  174   699.3833   17.9333
  175   699.6622   17.9484
  176   699.9413   17.9635
  177   700.2207   17.9787
  178   700.5003   17.9938
  179   700.7800   18.0090
  180   701.0601   18.0242
  181   701.3403   18.0394
  182   701.6208   18.0546
  183   701.9016   18.0699
  184   702.1825   18.0851
  185   702.4637   18.1004
  186   702.7451   18.1157
  187   703.0267   18.1310
  188   703.3086   18.1463
  189   703.5907   18.1616
  190   703.8730   18.1769
  191   704.1556   18.1923
  192   704.4384   18.2077
  193   704.7214   18.2230
  194   705.0047   18.2384
  195   705.2882   18.2538
  196   705.5719   18.2692
  197   705.8559   18.2846
  198   706.1401   18.3000
  199   706.4245   18.3154
  200   706.7092   18.3309
  201   706.9941   18.3464
  202   707.2792   18.3618
  203   707.5646   18.3773
  204   707.8502   18.3928
  205   708.1360   18.4083
  206   708.4221   18.4238
  207   708.7084   18.4393
  208   708.9950   18.4549
  209   709.2818   18.4704
  210   709.5688   18.4859
  211   709.8560   18.5015
  212   710.1435   18.5171
  213   710.4313   18.5327
  214   710.7193   18.5482
  215   711.0074   18.5637
  216   711.2959   18.5794
  217   711.5846   18.5950
  218   711.8735   18.6106
  219   712.1627   18.6261
  220   712.4521   18.6418
  221   712.7417   18.6575
  222   713.0316   18.6730
  223   713.3217   18.6886
  224   713.6121   18.7043
  225   713.9027   18.7200
  226   714.1935   18.7355
  227   714.4846   18.7512
  228   714.7759   18.7669
  229   715.0675   18.7826
  230   715.3593   18.7982
  231   715.6514   18.8139
  232   715.9437   18.8296
  233   716.2362   18.8452
  234   716.5290   18.8608
  235   716.8220   18.8765
  236   717.1153   18.8923
  237   717.4088   18.9080
  238   717.7025   18.9236
  239   717.9965   18.9393
  240   718.2908   18.9551
  241   718.5852   18.9708
  242   718.8800   18.9864
  243   719.1750   19.0021
  244   719.4702   19.0180
  245   719.7656   19.0337
  246   720.0614   19.0493
  247   720.3573   19.0651
  248   720.6535   19.0810
  249   720.9500   19.0967
  250   721.2467   19.1123
  251   721.5436   19.1281
  252   721.8408   19.1441
  253   722.1383   19.1598
  254   722.4360   19.1753
  255   722.7339   19.1912
  256   723.0321   19.2074
  257   723.3305   19.2229
  258   723.6292   19.2385
  259   723.9281   19.2546
  260   724.2273   19.2707
  261   724.5267   19.2862
  262   724.8264   19.3018
  263   725.1264   19.3181
  264   725.4265   19.3342
  265   725.7270   19.3495
  266   726.0277   19.3654
  267   726.3286   19.3818
  268   726.6298   19.3976
  269   726.9312   19.4131
  270   727.2329   19.4292
  271   727.5349   19.4457
  272   727.8371   19.4613
  273   728.1395   19.4768
  274   728.4423   19.4931
  275   728.0580   19.4729
  276   728.3604   19.4888
  277   728.6630   19.5049
  278   728.9659   19.5208
  279   729.2690   19.5367
  280   729.5724   19.5528
  281   729.8760   19.5689
  282   730.1799   19.5848
  283   730.4840   19.6007
  284   730.7884   19.6168
  285   731.0931   19.6330
  286   731.3979   19.6490
  287   731.7031   19.6650
  288   732.0085   19.6810
  289   732.3141   19.6972
  290   732.6200   19.7134
  291   732.9262   19.7293
  292   733.2326   19.7454
  293   733.5392   19.7617
  294   733.8461   19.7778
  295   734.1533   19.7938
  296   734.4607   19.8101
  297   734.7684   19.8264
  298   735.0763   19.8425
  299   735.3845   19.8585
  300   735.6930   19.8748
  301   736.0017   19.8913
  302   736.3106   19.9074
  303   736.6198   19.9235
  304   736.9293   19.9399
  305   737.2390   19.9564
  306   737.5490   19.9725
  307   737.8593   19.9887
  308   738.1698   20.0052
  309   738.4805   20.0216
  310   738.7916   20.0379
  311   739.1028   20.0541
  312   739.4144   20.0707
  313   739.7262   20.0871
  314   740.0382   20.1035
  315   740.3505   20.1198
  316   740.6631   20.1363
  317   740.9760   20.1530
  318   741.2891   20.1694
  319   741.6024   20.1857
  320   741.9161   20.2023
  321   742.2300   20.2191
  322   742.5441   20.2355
  323   742.8585   20.2519
  324   743.1732   20.2686
  325   743.4881   20.2853
  326   743.8033   20.3018
  327   744.1188   20.3184
  328   744.4345   20.3352
  329   744.7505   20.3519
  330   745.0668   20.3685
  331   745.3833   20.3852
  332   745.7001   20.4020
  333   746.0171   20.4188
  334   746.3344   20.4354
  335   746.6520   20.4523
  336   746.9699   20.4692
  337   747.2880   20.4859
  338   747.6064   20.5027
  339   747.9250   20.5197
  340   748.2439   20.5366
  341   748.5631   20.5534
  342   748.8826   20.5703
  343   749.2023   20.5874
  344   749.5223   20.6043
  345   749.8425   20.6212
  346   750.1631   20.6383
  347   750.4839   20.6555
  348   750.8049   20.6724
  349   751.1263   20.6894
  350   751.4479   20.7066
  351   751.7698   20.7238
  352   752.0919   20.7408
  353   752.4143   20.7580
  354   752.7370   20.7753
  355   753.0600   20.7925
  356   753.3832   20.8097
  357   753.7067   20.8269
  358   754.0305   20.8443
  359   754.3546   20.8617
  360   754.6789   20.8788
  361   755.0035   20.8963
  362   755.3284   20.9138
  363   755.6535   20.9311
  364   755.9789   20.9485
  365   756.3046   20.9660
  366   756.6306   20.9837
  367   756.9568   21.0009
  368   757.2834   21.0185
  369   757.6102   21.0362
  370   757.9372   21.0537
  371   758.2646   21.0712
  372   758.5922   21.0889
  373   758.9201   21.1067
  374   759.2483   21.1243
  375   759.5768   21.1420
  376   759.9055   21.1599
  377   760.2345   21.1777
  378   760.5638   21.1954
  379   760.8934   21.2133
  380   761.2233   21.2312
  381   761.5534   21.2490
  382   761.8838   21.2669
  383   762.2145   21.2849
  384   762.5455   21.3029
  385   762.8767   21.3208
  386   763.2083   21.3390
  387   763.5401   21.3570
  388   763.8722   21.3751
  389   764.2046   21.3933
  390   764.5372   21.4114
  391   764.8702   21.4296
  392   765.2034   21.4479
  393   765.5369   21.4662
  394   765.8707   21.4844
  395   766.2048   21.5028
  396   766.5392   21.5212
  397   766.8738   21.5395
  398   767.2087   21.5580
  399   767.5440   21.5765
  400   767.8795   21.5949
  401   768.2153   21.6134
  402   768.5513   21.6321
  403   768.8877   21.6506
  404   769.2244   21.6692
  405   769.5613   21.6880
  406   769.8985   21.7067
  407   770.2360   21.7253
  408   770.5738   21.7440
  409   770.9119   21.7632
  410   771.2503   21.7818
  411   771.5890   21.8004
  412   771.9279   21.8196
  413   772.2672   21.8387
  414   772.6067   21.8573
  415   772.9465   21.8763
  416   773.2867   21.8958
  417   773.6271   21.9148
  418   773.9678   21.9334
  419   774.3088   21.9528
  420   774.6500   21.9724
  421   774.9916   21.9913
  422   775.3335   22.0103
  423   775.6756   22.0301
  424   776.0181   22.0494
  425   776.3609   22.0683
  426   776.7039   22.0878
  427   777.0472   22.1078
  428   777.3909   22.1266
  429   777.7348   22.1461
  430   778.0790   22.1660
  431   778.4235   22.1856
  432   778.7683   22.2048
  433   779.1134   22.2245
  434   779.4588   22.2446
  435   779.8045   22.2639
  436   780.1505   22.2835
  437   780.4968   22.3038
  438   780.8434   22.3236
  439   781.1903   22.3429
  440   781.5375   22.3630
  441   781.8850   22.3832
  442   789.2663   22.8097
  443   789.6200   22.8303
  444   789.9741   22.8509
  445   790.3284   22.8717
  446   790.6831   22.8924
  447   791.0381   22.9130
  448   791.3934   22.9340
  449   791.7490   22.9547
  450   792.1048   22.9755
  451   792.4610   22.9965
  452   792.8176   23.0175
  453   793.1744   23.0383
  454   793.5315   23.0594
  455   793.8889   23.0805
  456   794.2467   23.1014
  457   794.6047   23.1225
  458   794.9631   23.1438
  459   795.3217   23.1648
  460   795.6807   23.1860
  461   796.0400   23.2072
  462   796.3996   23.2284
  463   796.7595   23.2498
  464   797.1197   23.2710
  465   797.4802   23.2925
  466   797.8411   23.3139
  467   798.2022   23.3351
  468   798.5637   23.3566
  469   798.9255   23.3783
  470   799.2876   23.3996
  471   799.6500   23.4210
  472   800.0127   23.4429
  473   800.3758   23.4644
  474   800.7391   23.4858
  475   801.1028   23.5078
  476   801.4667   23.5295
  477   801.8310   23.5509
  478   802.1956   23.5728
  479   802.5606   23.5949
  480   802.9258   23.6164
  481   803.2914   23.6382
  482   803.6573   23.6606
  483   804.0235   23.6822
  484   804.3900   23.7039
  485   804.7568   23.7262
  486   805.1240   23.7484
  487   805.4915   23.7699
  488   805.8592   23.7921
  489   806.2274   23.8147
  490   806.5958   23.8365
  491   806.9646   23.8583
  492   807.3336   23.8811
  493   807.7030   23.9034
  494   808.0728   23.9251
  495   808.4428   23.9477
  496   808.8132   23.9703
  497   809.1839   23.9921
  498   809.5549   24.0146
  499   809.9262   24.0375
  500   810.2979   24.0596
  501   810.6699   24.0818
  502   811.0422   24.1048
  503   811.4148   24.1275
  504   811.7878   24.1494
  505   812.1611   24.1723
  506   812.5347   24.1953
  507   812.9086   24.2174
  508   813.2829   24.2401
  509   813.6575   24.2634
  510   814.0324   24.2857
  511   814.4076   24.3083
  512   814.7832   24.3316
  513   815.1591   24.3544
  514   815.5354   24.3769
  515   815.9119   24.4000
  516   816.2888   24.4233
  517   816.6661   24.4457
  518   817.0436   24.4688
  519   817.4215   24.4924
  520   817.7998   24.5149
  521   818.1783   24.5377
  522   818.5572   24.5616
  523   818.9364   24.5843
  524   819.3160   24.6072
  525   819.6959   24.6310
  526   820.0761   24.6542
  527   820.4566   24.6769
  528   820.8375   24.7005
  529   821.2188   24.7241
  530   821.6003   24.7468
  531   821.9822   24.7705
  532   822.3645   24.7942
  533   822.7470   24.8171
  534   823.1299   24.8406
  535   823.5132   24.8646
  536   823.8968   24.8877
  537   824.2807   24.9109
  538   824.6649   24.9352
  539   825.0495   24.9588
  540   825.4345   24.9818
  541   825.8198   25.0058
  542   826.2054   25.0295
  543   826.5913   25.0528
  544   826.9776   25.0770
  545   827.3643   25.1008
  546   827.7513   25.1242
  547   828.1386   25.1483
  548   828.5263   25.1722
  549   828.9143   25.1958
  550   829.3026   25.2198
  551   829.6913   25.2438
  552   830.0804   25.2676
  553   830.4698   25.2916
  554   830.8595   25.3158
  555   831.2496   25.3397
  556   831.6400   25.3636
  557   832.0308   25.3880
  558   832.4219   25.4119
  559   832.8134   25.4360
  560   833.2052   25.4603
  561   833.5973   25.4844
  562   833.9899   25.5086
  563   834.3827   25.5329
  564   834.7759   25.5572
  565   835.1695   25.5814
  566   835.5634   25.6057
  567   835.9576   25.6302
  568   836.3522   25.6545
  569   836.7472   25.6788
  570   837.1425   25.7034
  571   837.5382   25.7278
  572   837.9342   25.7522
  573   838.3306   25.7769
  574   838.7273   25.8014
  575   839.1243   25.8257
  576   839.5218   25.8506
  577   839.9196   25.8752
  578   840.3177   25.8995
  579   840.7162   25.9246
  580   841.1150   25.9492
  581   841.5142   25.9736
  582   841.9138   25.9988
  583   842.3137   26.0235
  584   842.7140   26.0480
  585   843.1146   26.0732
  586   843.5156   26.0980
  587   843.9170   26.1226
  588   844.3187   26.1479
  589   844.7208   26.1728
  590   845.1232   26.1976
  591   845.5260   26.2229
  592   845.9291   26.2479
  593   846.3326   26.2727
  594   846.7365   26.2980
  595   847.1407   26.3233
  596   847.5454   26.3482
  597   847.9503   26.3737
  598   848.3556   26.3988
  599   848.7613   26.4239
  600   849.1674   26.4494
  601   849.5738   26.4747
  602   849.9806   26.4999
  603   850.3877   26.5256
  604   850.7952   26.5509
  605   851.2031   26.5761
  606   851.6114   26.6020
  607   852.0200   26.6274
  608   852.4290   26.6527
  609   851.4931   26.5938
  610   851.7998   26.6134
  611   852.1067   26.6330
  612   852.4138   26.6515
  613   852.7212   26.6706
  614   853.0289   26.6906
  615   853.3367   26.7097
  616   853.6448   26.7283
  617   853.9532   26.7478
  618   854.2618   26.7677
  619   854.5706   26.7868
  620   854.8797   26.8055
  621   855.1890   26.8253
  622   855.4986   26.8451
  623   855.8084   26.8642
  624   856.1184   26.8831
  625   856.4287   26.9031
  626   856.7393   26.9229
  627   857.0501   26.9419
  628   857.3611   26.9613
  629   857.6723   26.9811
  630   857.9839   27.0008
  631   858.2956   27.0200
  632   858.6076   27.0396
  633   858.9199   27.0597
  634   859.2324   27.0791
  635   859.5451   27.0983
  636   859.8581   27.1183
  637   860.1713   27.1383
  638   860.4848   27.1578
  639   860.7985   27.1774
  640   861.1125   27.1975
  641   861.4267   27.2174
  642   861.7412   27.2368
  643   862.0559   27.2567
  644   862.3709   27.2769
  645   862.6861   27.2966
  646   863.0015   27.3163
  647   863.3173   27.3363
  648   863.6332   27.3566
  649   863.9494   27.3763
  650   864.2659   27.3961
  651   864.5826   27.4164
  652   864.8995   27.4366
  653   865.2168   27.4563
  654   865.5342   27.4764
  655   865.8519   27.4968
  656   866.1699   27.5169
  657   866.4881   27.5367
  658   866.8066   27.5571
  659   867.1253   27.5775
  660   867.4442   27.5975
  661   867.7635   27.6176
  662   868.0829   27.6383
  663   868.4027   27.6586
  664   868.7226   27.6786
  665   869.0429   27.6989
  666   869.3634   27.7196
  667   869.6841   27.7399
  668   870.0051   27.7600
  669   870.3263   27.7808
  670   870.6478   27.8014
  671   870.9696   27.8215
  672   871.2916   27.8420
  673   871.6139   27.8627
  674   871.9364   27.8834
  675   872.2592   27.9036
  676   872.5822   27.9244
  677   872.9055   27.9453
  678   873.2291   27.9658
  679   873.5529   27.9862
  680   873.8769   28.0072
  681   874.2012   28.0276
  682   874.5258   28.0488
  683   874.8507   28.0692
  684   875.1758   28.0904
  685   875.5011   28.1112
  686   875.8267   28.1317
  687   876.1526   28.1527
  688   876.4787   28.1739
  689   876.8051   28.1947
  690   877.1318   28.2154
  691   877.4587   28.2366
  692   877.7858   28.2578
  693   878.1133   28.2786
  694   878.4410   28.2995
  695   878.7689   28.3209
  696   879.0971   28.3422
  697   879.4256   28.3630
  698   879.7543   28.3841
  699   880.0833   28.4056
  700   880.4126   28.4268
  701   880.7421   28.4476
  702   881.0719   28.4692
  703   881.4019   28.4908
  704   881.7323   28.5118
  705   882.0628   28.5329
  706   882.3937   28.5547
  707   882.7248   28.5762
  708   883.0561   28.5973
  709   883.3878   28.6187
  710   883.7197   28.6407
  711   884.0518   28.6619
  712   884.3843   28.6831
  713   884.7170   28.7051
  714   885.0499   28.7271
